BALD-06         
! Benzaldehyde absorption cross sections recommended by Calvert et al (2002)     
! From Lang (1961-1971) in hexane solution                                       
!                                                                                
Points (the mechanism evaluated with this format)                                
! With FAC, units are (cm^2/molecule)                                            
FAC=1.0                                                                          
280.0 3.491E-18 1.0000
281.0 3.267E-18 1.0000
282.0 3.131E-18 1.0000
283.0 2.705E-18 1.0000
284.0 2.656E-18 1.0000
285.0 2.643E-18 1.0000
286.0 2.569E-18 1.0000
287.0 2.599E-18 1.0000
288.0 2.810E-18 1.0000
289.0 2.400E-18 1.0000
290.0 1.998E-18 1.0000
291.0 1.410E-18 1.0000
292.0 8.250E-19 1.0000
293.0 6.120E-19 1.0000
294.0 3.990E-19 1.0000
295.0 2.780E-19 1.0000
296.0 1.570E-19 1.0000
297.0 1.340E-19 1.0000
298.0 1.100E-19 1.0000
299.0 9.200E-20 1.0000
300.0 7.400E-20 1.0000
301.0 6.900E-20 1.0000
302.0 6.500E-20 1.0000
303.0 6.600E-20 1.0000
304.0 6.800E-20 1.0000
305.0 7.100E-20 1.0000
306.0 7.300E-20 1.0000
307.0 7.400E-20 1.0000
308.0 7.400E-20 1.0000
309.0 7.300E-20 1.0000
310.0 7.200E-20 1.0000
311.0 6.800E-20 1.0000
312.0 6.800E-20 1.0000
313.0 7.000E-20 1.0000
314.0 8.100E-20 1.0000
315.0 8.900E-20 1.0000
316.0 9.200E-20 1.0000
317.0 9.300E-20 1.0000
318.0 9.100E-20 1.0000
319.0 8.700E-20 1.0000
320.0 8.600E-20 1.0000
321.0 8.400E-20 1.0000
322.0 8.500E-20 1.0000
323.0 8.900E-20 1.0000
324.0 9.100E-20 1.0000
325.0 9.700E-20 1.0000
326.0 1.000E-19 1.0000
327.0 1.000E-19 1.0000
328.0 1.000E-19 1.0000
329.0 1.000E-19 1.0000
330.0 9.300E-20 1.0000
331.0 9.000E-20 1.0000
332.0 8.700E-20 1.0000
333.0 8.500E-20 1.0000
334.0 8.600E-20 1.0000
335.0 8.900E-20 1.0000
336.0 9.300E-20 1.0000
337.0 9.700E-20 1.0000
338.0 1.010E-19 1.0000
339.0 1.040E-19 1.0000
340.0 1.000E-19 1.0000
341.0 9.400E-20 1.0000
342.0 8.600E-20 1.0000
343.0 8.300E-20 1.0000
344.0 7.900E-20 1.0000
345.0 7.400E-20 1.0000
346.0 7.000E-20 1.0000
347.0 6.500E-20 1.0000
348.0 6.100E-20 1.0000
349.0 6.100E-20 1.0000
350.0 6.300E-20 1.0000
351.0 7.000E-20 1.0000
352.0 7.600E-20 1.0000
353.0 8.300E-20 1.0000
354.0 8.400E-20 1.0000
355.0 7.300E-20 1.0000
356.0 6.200E-20 1.0000
357.0 5.500E-20 1.0000
358.0 4.800E-20 1.0000
359.0 4.100E-20 1.0000
360.0 3.300E-20 1.0000
361.0 3.100E-20 1.0000
362.0 2.900E-20 1.0000
363.0 2.600E-20 1.0000
364.0 2.400E-20 1.0000
365.0 2.400E-20 1.0000
366.0 2.500E-20 1.0000
367.0 2.700E-20 1.0000
368.0 2.900E-20 1.0000
369.0 3.300E-20 1.0000
370.0 3.600E-20 1.0000
371.0 4.000E-20 1.0000
372.0 3.300E-20 1.0000
373.0 2.300E-20 1.0000
374.0 1.400E-20 1.0000
375.0 9.900E-21 1.0000
376.0 6.100E-21 1.0000
377.0 4.600E-21 1.0000
378.0 3.000E-21 1.0000
379.0 0.000E+00 1.0000
