CLONO2-2        
! CLONO2 + hv = CL. + NO3                                                        
! CLONO2 absorption cross sections and quantum yields recommended by IUPAC (2005)
! also consistent with JPL (2015)
Points (the mechanism evaluated with this format)                                
! With FAC, units are (cm^2/molecule)                                            
FAC=1.0                                                                          
196.0 3.100E-18 0.6000
198.0 2.940E-18 0.6000
200.0 2.820E-18 0.6000
202.0 2.770E-18 0.6000
204.0 2.800E-18 0.6000
206.0 2.880E-18 0.6000
208.0 3.000E-18 0.6000
210.0 3.140E-18 0.6000
212.0 3.290E-18 0.6000
214.0 3.390E-18 0.6000
216.0 3.450E-18 0.6000
218.0 3.410E-18 0.6000
220.0 3.320E-18 0.6000
222.0 3.140E-18 0.6000
224.0 2.910E-18 0.6000
226.0 2.640E-18 0.6000
228.0 2.350E-18 0.6000
230.0 2.080E-18 0.6000
232.0 1.820E-18 0.6000
234.0 1.580E-18 0.6000
236.0 1.380E-18 0.6000
238.0 1.200E-18 0.6000
240.0 1.050E-18 0.6000
242.0 9.190E-19 0.6000
244.0 8.120E-19 0.6000
246.0 7.160E-19 0.6000
248.0 6.240E-19 0.6000
250.0 5.600E-19 0.6000
252.0 5.020E-19 0.6000
254.0 4.530E-19 0.6000
256.0 4.100E-19 0.6000
258.0 3.720E-19 0.6000
260.0 3.380E-19 0.6000
262.0 3.060E-19 0.6000
264.0 2.780E-19 0.6000
266.0 2.520E-19 0.6000
268.0 2.270E-19 0.6000
270.0 2.050E-19 0.6000
272.0 1.850E-19 0.6000
274.0 1.660E-19 0.6000
276.0 1.490E-19 0.6000
278.0 1.330E-19 0.6000
280.0 1.190E-19 0.6000
285.0 8.800E-20 0.6000
290.0 6.410E-20 0.6000
295.0 4.380E-20 0.6000
300.0 3.130E-20 0.6000
305.0 2.240E-20 0.6000
310.0 1.600E-20 0.6140
315.0 1.140E-20 0.6500
320.0 8.310E-21 0.6860
325.0 6.130E-21 0.7210
330.0 4.660E-21 0.7570
335.0 3.670E-21 0.7930
340.0 3.020E-21 0.8290
345.0 2.580E-21 0.8640
350.0 2.290E-21 0.9000
355.0 2.080E-21 0.9360
360.0 2.000E-21 0.9710
365.0 1.800E-21 1.0000
370.0 1.590E-21 1.0000
375.0 1.410E-21 1.0000
380.0 1.210E-21 1.0000
385.0 1.370E-21 1.0000
390.0 9.100E-22 1.0000
395.0 7.600E-22 1.0000
400.0 6.400E-22 1.0000
405.0 5.400E-22 1.0000
410.0 4.400E-22 1.0000
415.0 3.600E-22 1.0000
420.0 3.200E-22 1.0000
425.0 2.300E-22 1.0000
430.0 1.900E-22 1.0000
435.0 0.000E+00 1.0000
