GLYD_IUPAC10
! HOCH2CHO + hv ---> products		
! IUPAC (2002) based on Bacher et al (2001), J. Atm. Chem, 39, 171.
! quantum yield = 0.75+/-0.25		
! lambda(nm) xcross(1.E+20*cm2) yield	
Points (the mechanism evaluated with this format)                                		
! With FAC, units are (cm^2/molecule)
FAC=1.0
205.0 3.910E-19 0.750
206.0 3.370E-19 0.750
207.0 2.870E-19 0.750
208.0 2.460E-19 0.750
209.0 2.120E-19 0.750
210.0 1.810E-19 0.750
211.0 1.530E-19 0.750
212.0 1.300E-19 0.750
213.0 1.120E-19 0.750
214.0 9.400E-20 0.750
215.0 7.840E-20 0.750
216.0 6.490E-20 0.750
217.0 5.300E-20 0.750
218.0 4.260E-20 0.750
219.0 3.370E-20 0.750
220.0 2.650E-20 0.750
221.0 2.130E-20 0.750
222.0 1.650E-20 0.750
223.0 1.360E-20 0.750
224.0 1.120E-20 0.750
225.0 9.330E-21 0.750
226.0 7.830E-21 0.750
227.0 6.910E-21 0.750
228.0 6.370E-21 0.750
229.0 6.370E-21 0.750
230.0 6.490E-21 0.750
231.0 6.440E-21 0.750
232.0 6.800E-21 0.750
233.0 7.230E-21 0.750
234.0 7.850E-21 0.750
235.0 8.330E-21 0.750
236.0 8.800E-21 0.750
237.0 9.390E-21 0.750
238.0 1.030E-20 0.750
239.0 1.110E-20 0.750
240.0 1.200E-20 0.750
241.0 1.280E-20 0.750
242.0 1.380E-20 0.750
243.0 1.500E-20 0.750
244.0 1.590E-20 0.750
245.0 1.710E-20 0.750
246.0 1.830E-20 0.750
247.0 1.950E-20 0.750
248.0 2.090E-20 0.750
249.0 2.220E-20 0.750
251.0 2.500E-20 0.750
252.0 2.650E-20 0.750
253.0 2.820E-20 0.750
254.0 2.970E-20 0.750
255.0 3.090E-20 0.750
256.0 3.210E-20 0.750
257.0 3.390E-20 0.750
258.0 3.590E-20 0.750
259.0 3.750E-20 0.750
260.0 3.890E-20 0.750
261.0 4.020E-20 0.750
262.0 4.130E-20 0.750
263.0 4.240E-20 0.750
264.0 4.400E-20 0.750
265.0 4.600E-20 0.750
266.0 4.750E-20 0.750
267.0 4.850E-20 0.750
268.0 4.920E-20 0.750
269.0 4.990E-20 0.750
270.0 5.050E-20 0.750
271.0 5.140E-20 0.750
272.0 5.230E-20 0.750
273.0 5.360E-20 0.750
274.0 5.400E-20 0.750
275.0 5.410E-20 0.750
276.0 5.390E-20 0.750
277.0 5.420E-20 0.750
278.0 5.370E-20 0.750
279.0 5.340E-20 0.750
280.0 5.340E-20 0.750
281.0 5.370E-20 0.750
282.0 5.370E-20 0.750
283.0 5.250E-20 0.750
284.0 5.120E-20 0.750
285.0 5.010E-20 0.750
286.0 4.930E-20 0.750
287.0 4.800E-20 0.750
288.0 4.670E-20 0.750
289.0 4.580E-20 0.750
290.0 4.500E-20 0.750
291.0 4.410E-20 0.750
292.0 4.190E-20 0.750
293.0 3.960E-20 0.750
294.0 3.760E-20 0.750
295.0 3.590E-20 0.750
296.0 3.460E-20 0.750
297.0 3.290E-20 0.750
298.0 3.170E-20 0.750
299.0 3.020E-20 0.750
300.0 2.900E-20 0.750
301.0 2.740E-20 0.750
302.0 2.510E-20 0.750
303.0 2.260E-20 0.750
304.0 2.070E-20 0.750
305.0 1.910E-20 0.750
306.0 1.770E-20 0.750
307.0 1.640E-20 0.750
308.0 1.500E-20 0.750
309.0 1.360E-20 0.750
310.0 1.250E-20 0.750
311.0 1.150E-20 0.750
312.0 1.030E-20 0.750
313.0 8.840E-21 0.750
314.0 7.710E-21 0.750
315.0 6.890E-21 0.750
316.0 5.970E-21 0.750
317.0 5.160E-21 0.750
318.0 4.550E-21 0.750
319.0 3.960E-21 0.750
320.0 3.290E-21 0.750
321.0 2.850E-21 0.750
322.0 2.490E-21 0.750
323.0 2.130E-21 0.750
324.0 1.850E-21 0.750
325.0 1.470E-21 0.750
326.0 1.280E-21 0.750
327.0 1.050E-21 0.750
328.0 8.700E-22 0.750
329.0 8.400E-22 0.750
330.0 6.800E-22 0.750
331.0 5.800E-22 0.750
332.0 4.300E-22 0.750
333.0 4.000E-22 0.750
334.0 4.000E-22 0.750
335.0 3.900E-22 0.750
