H2O2_NASA94
! Hydrogen Peroxide Photolysis (H2O2)
! H2O2 + hv -> OH + OH     
! Taken from NASA (1994); Absorption CS for T=298 K;
! format:  wl, abs_cs, qy
Points
! With FAC, units are (cm^2/molecule)
FAC=1.0E-20
 190.0  67.2   1.0
 195.0  56.4   1.0
 200.0  47.5   1.0
 205.0  40.8   1.0
 210.0  35.7   1.0
 215.0  30.7   1.0
 220.0  25.8   1.0
 225.0  21.7   1.0
 230.0  18.2   1.0
 235.0  15.0   1.0
 240.0  12.4   1.0
 245.0  10.2   1.0
 250.0   8.3   1.0
 255.0   6.7   1.0
 260.0   5.3   1.0
 265.0   4.2   1.0
 270.0   3.3   1.0
 275.0   2.6   1.0
 280.0   2.0   1.0
 285.0   1.5   1.0
 290.0   1.2   1.0
 295.0   0.90  1.0
 300.0   0.68  1.0
 305.0   0.51  1.0
 310.0   0.39  1.0
 315.0   0.29  1.0
 320.0   0.22  1.0
 325.0   0.16  1.0
 330.0   0.13  1.0
 335.0   0.10  1.0
 340.0   0.07  1.0
 345.0   0.05  1.0
 350.0   0.04  1.0

