ISPD 
! ISPD photolysis = average of IUPAC MACR and MVK
! Supplied by Greg Yarwood from CAMx (July 17, 2013)  
! 1st column is wavelength   
! 2nd column is absorption cross-section and 3rd column is QY
Points (assumed)
! With FAC, units are (cm^2/molecule)
FAC=1.0
280.0 1.170E-20 0.05
281.0 1.250E-20 0.05
282.0 1.340E-20 0.05
283.0 1.430E-20 0.05
284.0 1.525E-20 0.05
285.0 1.630E-20 0.05
286.0 1.735E-20 0.05
287.0 1.850E-20 0.05
288.0 1.970E-20 0.05
289.0 2.095E-20 0.05
290.0 2.230E-20 0.05
291.0 2.355E-20 0.05
292.0 2.475E-20 0.05
293.0 2.605E-20 0.05
294.0 2.725E-20 0.05
295.0 2.880E-20 0.05
296.0 3.045E-20 0.05
297.0 3.190E-20 0.05
298.0 3.345E-20 0.05
299.0 3.480E-20 0.05
300.0 3.655E-20 0.05
301.0 3.825E-20 0.05
302.0 3.980E-20 0.05
303.0 4.130E-20 0.05
304.0 4.275E-20 0.05
305.0 4.425E-20 0.05
306.0 4.610E-20 0.05
307.0 4.770E-20 0.05
308.0 4.920E-20 0.05
309.0 5.055E-20 0.05
310.0 5.180E-20 0.05
311.0 5.355E-20 0.05
312.0 5.540E-20 0.05
313.0 5.685E-20 0.05
314.0 5.815E-20 0.05
315.0 5.920E-20 0.05
316.0 6.075E-20 0.05
317.0 6.230E-20 0.05
318.0 6.365E-20 0.05
319.0 6.455E-20 0.05
320.0 6.485E-20 0.05
321.0 6.470E-20 0.05
322.0 6.520E-20 0.05
323.0 6.595E-20 0.05
324.0 6.730E-20 0.05
325.0 6.845E-20 0.05
326.0 6.875E-20 0.05
327.0 6.885E-20 0.05
328.0 6.995E-20 0.05
329.0 7.150E-20 0.05
330.0 7.215E-20 0.05
331.0 7.230E-20 0.05
332.0 7.145E-20 0.05
333.0 6.935E-20 0.05
334.0 6.725E-20 0.05
335.0 6.510E-20 0.05
336.0 6.410E-20 0.05
337.0 6.475E-20 0.05
338.0 6.470E-20 0.05
339.0 6.420E-20 0.05
340.0 6.340E-20 0.05
341.0 6.220E-20 0.05
342.0 6.165E-20 0.05
343.0 6.465E-20 0.05
344.0 6.545E-20 0.05
345.0 6.380E-20 0.05
346.0 6.125E-20 0.05
347.0 5.855E-20 0.05
348.0 5.495E-20 0.05
349.0 5.010E-20 0.05
350.0 4.680E-20 0.05
351.0 4.395E-20 0.05
352.0 4.305E-20 0.05
353.0 4.440E-20 0.05
354.0 4.315E-20 0.05
355.0 4.145E-20 0.05
356.0 3.825E-20 0.05
357.0 3.735E-20 0.05
358.0 3.675E-20 0.05
359.0 3.850E-20 0.05
360.0 4.365E-20 0.05
361.0 3.940E-20 0.05
362.0 3.550E-20 0.05
363.0 3.110E-20 0.05
364.0 2.985E-20 0.05
365.0 2.680E-20 0.05
366.0 2.345E-20 0.05
367.0 2.060E-20 0.05
368.0 1.800E-20 0.05
369.0 1.660E-20 0.05
370.0 1.650E-20 0.05
371.0 1.705E-20 0.05
372.0 1.555E-20 0.05
373.0 1.455E-20 0.05
374.0 1.235E-20 0.05
375.0 1.144E-20 0.05
376.0 1.130E-20 0.05
377.0 1.155E-20 0.05
378.0 1.275E-20 0.05
379.0 1.690E-20 0.05
380.0 1.175E-20 0.05
381.0 9.825E-21 0.05
382.0 7.335E-21 0.05
383.0 6.670E-21 0.05
384.0 6.465E-21 0.05
385.0 5.440E-21 0.05
386.0 4.415E-21 0.05
387.0 3.695E-21 0.05
388.0 3.140E-21 0.05
389.0 2.785E-21 0.05
390.0 2.455E-21 0.05
391.0 2.330E-21 0.05
392.0 2.260E-21 0.05
393.0 2.140E-21 0.05
394.0 1.950E-21 0.05
395.0 1.650E-21 0.05
