MACR_RACM2
! MACR + HV = 0.34*HO + 0.66*HO2 + 0.67*ACO3 + 0.33*MACP + 0.34*XO2 + 0.67*CO + 0.67*HCHO
! Absorption x-section from NASA 2006                                                    
! Quantum yield from    
! Supplied by Dr. Wendy Goliff, reformatted by Dr. Golam Sarwar to make it compatible with CMAQ
Points 
! With FAC, units are (cm^2/molecule)
FAC=1.0
186.1  0.000E+00  0.008
187.8  0.000E+00  0.008
189.6  0.000E+00  0.008
191.4  0.000E+00  0.008
193.3  0.000E+00  0.008
195.2  0.000E+00  0.008
197.1  0.000E+00  0.008
199.0  0.000E+00  0.008
201.0  0.000E+00  0.008
203.1  0.000E+00  0.008
205.2  0.000E+00  0.008
207.3  0.000E+00  0.008
209.4  0.000E+00  0.008
211.7  0.000E+00  0.008
213.9  0.000E+00  0.008
216.2  0.000E+00  0.008
218.6  0.000E+00  0.008
221.0  0.000E+00  0.008
223.5  0.000E+00  0.008
226.0  0.000E+00  0.008
228.6  0.000E+00  0.008
231.3  0.000E+00  0.008
234.0  0.000E+00  0.008
236.7  0.000E+00  0.008
239.6  0.000E+00  0.008
242.5  0.000E+00  0.008
245.4  0.000E+00  0.008
248.5  0.000E+00  0.008
251.6  0.190E-20  0.008
254.8  0.177E-20  0.008
258.2  0.187E-20  0.008
261.5  0.218E-20  0.008
265.0  0.283E-20  0.008
268.5  0.381E-20  0.008
272.2  0.529E-20  0.008
275.9  0.726E-20  0.008
279.8  0.995E-20  0.008
283.7  0.132E-19  0.008
287.8  0.177E-19  0.008
292.0  0.228E-19  0.008
296.3  0.289E-19  0.008
300.5  0.353E-19  0.008
303.0  0.391E-19  0.008
304.0  0.404E-19  0.008
305.0  0.419E-19  0.008
306.0  0.440E-19  0.008
307.0  0.458E-19  0.008
308.0  0.471E-19  0.008
309.0  0.481E-19  0.008
310.0  0.492E-19  0.008
311.0  0.513E-19  0.008
312.0  0.535E-19  0.008
313.0  0.550E-19  0.008
314.0  0.561E-19  0.008
316.0  0.587E-19  0.008
320.0  0.627E-19  0.008
325.0  0.674E-19  0.008
330.0  0.715E-19  0.008
335.0  0.608E-19  0.008
340.0  0.624E-19  0.008
345.0  0.653E-19  0.008
350.0  0.416E-19  0.008
355.0  0.414E-19  0.008
360.0  0.505E-19  0.008
365.0  0.233E-19  0.008
370.0  0.142E-19  0.008
375.0  0.977E-20  0.008
380.0  0.130E-19  0.008
385.0  0.331E-20  0.008
390.0  0.147E-20  0.008
395.0  0.123E-20  0.008
400.0  0.000E+00  0.008
405.0  0.000E+00  0.008
410.0  0.000E+00  0.008
415.0  0.000E+00  0.008
420.0  0.000E+00  0.008
425.0  0.000E+00  0.008
430.0  0.000E+00  0.008
435.0  0.000E+00  0.008
440.0  0.000E+00  0.008
445.0  0.000E+00  0.008
450.0  0.000E+00  0.008
455.0  0.000E+00  0.008
460.0  0.000E+00  0.008
465.0  0.000E+00  0.008
470.0  0.000E+00  0.008
475.0  0.000E+00  0.008
480.0  0.000E+00  0.008
485.0  0.000E+00  0.008
490.0  0.000E+00  0.008
495.0  0.000E+00  0.008
500.0  0.000E+00  0.008
505.0  0.000E+00  0.008
510.0  0.000E+00  0.008
515.0  0.000E+00  0.008
520.0  0.000E+00  0.008
525.0  0.000E+00  0.008
530.0  0.000E+00  0.008
535.0  0.000E+00  0.008
540.0  0.000E+00  0.008
545.0  0.000E+00  0.008
550.0  0.000E+00  0.008
555.0  0.000E+00  0.008
560.0  0.000E+00  0.008
565.0  0.000E+00  0.008
570.0  0.000E+00  0.008
575.0  0.000E+00  0.008
580.0  0.000E+00  0.008
585.0  0.000E+00  0.008
590.0  0.000E+00  0.008
595.0  0.000E+00  0.008
600.0  0.000E+00  0.008
605.0  0.000E+00  0.008
610.0  0.000E+00  0.008
615.0  0.000E+00  0.008
620.0  0.000E+00  0.008
625.0  0.000E+00  0.008
630.0  0.000E+00  0.008
635.0  0.000E+00  0.008
640.0  0.000E+00  0.008
644.8  0.000E+00  0.000
651.0  0.000E+00  0.000
660.0  0.000E+00  0.000
670.0  0.000E+00  0.000
680.0  0.000E+00  0.000
690.0  0.000E+00  0.000
700.0  0.000E+00  0.000
710.0  0.000E+00  0.000
720.0  0.000E+00  0.000
730.0  0.000E+00  0.000
