MGLY_RACM2
! MGLY + HV = ACO3 + HO2 + CO 
! Absorption x-section from NASA 2006                                                    
! Quantum yield from NASA 2006  
! Supplied by Dr. Wendy Goliff, reformatted by Dr. Golam Sarwar to make it compatible with CMAQ
Points 
! With FAC, units are (cm^2/molecule)
FAC=1.0
186.1  0.000E+00  1.000
187.8  0.000E+00  1.000
189.6  0.000E+00  1.000
191.4  0.000E+00  1.000
193.3  0.000E+00  1.000
195.2  0.000E+00  1.000
197.1  0.000E+00  1.000
199.0  0.000E+00  1.000
201.0  0.000E+00  1.000
203.1  0.000E+00  1.000
205.2  0.000E+00  1.000
207.3  0.000E+00  1.000
209.4  0.000E+00  1.000
211.7  0.000E+00  1.000
213.9  0.000E+00  1.000
216.2  0.000E+00  1.000
218.6  0.000E+00  1.000
221.0  0.000E+00  1.000
223.5  0.000E+00  1.000
226.0  0.131E-19  1.000
228.6  0.142E-19  1.000
231.3  0.156E-19  1.000
234.0  0.174E-19  1.000
236.7  0.189E-19  1.000
239.6  0.205E-19  1.000
242.5  0.219E-19  1.000
245.4  0.233E-19  1.000
248.5  0.252E-19  1.000
251.6  0.269E-19  1.000
254.8  0.285E-19  1.000
258.2  0.313E-19  1.000
261.5  0.338E-19  1.000
265.0  0.362E-19  1.000
268.5  0.394E-19  1.000
272.2  0.427E-19  1.000
275.9  0.450E-19  1.000
279.8  0.486E-19  1.000
283.7  0.476E-19  1.000
287.8  0.479E-19  1.000
292.0  0.465E-19  1.000
296.3  0.420E-19  1.000
300.5  0.371E-19  1.000
303.0  0.352E-19  1.000
304.0  0.344E-19  1.000
305.0  0.336E-19  1.000
306.0  0.316E-19  1.000
307.0  0.296E-19  1.000
308.0  0.276E-19  1.000
309.0  0.256E-19  1.000
310.0  0.237E-19  1.000
311.0  0.227E-19  1.000
312.0  0.218E-19  1.000
313.0  0.208E-19  1.000
314.0  0.199E-19  1.000
316.0  0.182E-19  1.000
320.0  0.151E-19  1.000
325.0  0.938E-20  1.000
330.0  0.652E-20  1.000
335.0  0.482E-20  1.000
340.0  0.323E-20  1.000
345.0  0.300E-20  1.000
350.0  0.394E-20  1.000
355.0  0.560E-20  1.000
360.0  0.695E-20  1.000
365.0  0.108E-19  1.000
370.0  0.148E-19  1.000
375.0  0.191E-19  1.000
380.0  0.243E-19  1.000
385.0  0.322E-19  1.000
390.0  0.403E-19  1.000
395.0  0.473E-19  0.697
400.0  0.566E-19  0.560
405.0  0.692E-19  0.429
410.0  0.846E-19  0.320
415.0  0.968E-19  0.288
420.0  0.103E-18  0.270
425.0  0.102E-18  0.225
430.0  0.101E-18  0.200
435.0  0.106E-18  0.191
440.0  0.104E-18  0.017
445.0  0.994E-19  0.005
450.0  0.813E-19  0.005
455.0  0.395E-19  0.005
460.0  0.109E-19  0.005
465.0  0.327E-20  0.005
470.0  0.000E+00  0.005
475.0  0.000E+00  0.005
480.0  0.000E+00  0.000
485.0  0.000E+00  0.000
490.0  0.000E+00  0.000
495.0  0.000E+00  0.000
500.0  0.000E+00  0.000
505.0  0.000E+00  0.000
510.0  0.000E+00  0.000
515.0  0.000E+00  0.000
520.0  0.000E+00  0.000
525.0  0.000E+00  0.000
530.0  0.000E+00  0.000
535.0  0.000E+00  0.000
540.0  0.000E+00  0.000
545.0  0.000E+00  0.000
550.0  0.000E+00  0.000
555.0  0.000E+00  0.000
560.0  0.000E+00  0.000
565.0  0.000E+00  0.000
570.0  0.000E+00  0.000
575.0  0.000E+00  0.000
580.0  0.000E+00  0.000
585.0  0.000E+00  0.000
590.0  0.000E+00  0.000
595.0  0.000E+00  0.000
600.0  0.000E+00  0.000
605.0  0.000E+00  0.000
610.0  0.000E+00  0.000
615.0  0.000E+00  0.000
620.0  0.000E+00  0.000
625.0  0.000E+00  0.000
630.0  0.000E+00  0.000
635.0  0.000E+00  0.000
640.0  0.000E+00  0.000
644.8  0.000E+00  0.000
651.0  0.000E+00  0.000
660.0  0.000E+00  0.000
670.0  0.000E+00  0.000
680.0  0.000E+00  0.000
690.0  0.000E+00  0.000
700.0  0.000E+00  0.000
710.0  0.000E+00  0.000
720.0  0.000E+00  0.000
730.0  0.000E+00  0.000
