NO3NO-06        
! NO3 + HV = NO + O2                                                             
! From NASA (2006), for 298 K.                                                   
! Quantum yields for wavelengths above 640 nm estimated by linear extrapolation. 
!                                                                                
Points (the mechanism evaluated with this format)                                
! With FAC, units are (cm^2/molecule)                                            
FAC=1.0                                                                          
585.0 3.100E-18 0.0000
586.0 3.550E-18 0.0150
587.0 4.460E-18 0.0390
588.0 5.400E-18 0.0970
589.0 6.560E-18 0.1280
590.0 6.380E-18 0.1900
591.0 5.830E-18 0.2200
592.0 5.480E-18 0.2490
593.0 4.900E-18 0.3030
594.0 4.490E-18 0.3280
595.0 4.600E-18 0.3590
596.0 4.950E-18 0.3570
597.0 4.670E-18 0.3180
598.0 3.930E-18 0.3230
599.0 3.330E-18 0.3140
600.0 2.960E-18 0.2910
601.0 3.070E-18 0.2960
602.0 3.550E-18 0.2910
603.0 4.080E-18 0.2830
604.0 4.680E-18 0.2800
605.0 4.670E-18 0.2640
606.0 3.550E-18 0.2710
607.0 2.580E-18 0.2680
608.0 1.980E-18 0.2500
609.0 1.840E-18 0.2480
610.0 1.890E-18 0.2360
611.0 2.040E-18 0.2050
612.0 2.390E-18 0.2000
613.0 2.820E-18 0.1900
614.0 2.730E-18 0.1660
615.0 2.420E-18 0.1660
616.0 2.240E-18 0.1600
617.0 2.260E-18 0.1410
618.0 2.560E-18 0.1430
619.0 2.740E-18 0.1390
620.0 3.500E-18 0.1310
621.0 5.620E-18 0.1270
622.0 1.090E-17 0.1220
623.0 1.578E-17 0.1170
624.0 1.291E-17 0.1060
625.0 8.980E-18 0.0990
626.0 7.830E-18 0.0920
627.0 8.060E-18 0.0850
628.0 7.890E-18 0.0740
629.0 7.480E-18 0.0700
630.0 7.240E-18 0.0650
631.0 5.180E-18 0.0580
632.0 3.500E-18 0.0510
633.0 2.330E-18 0.0470
634.0 1.760E-18 0.0430
635.0 1.540E-18 0.0370
636.0 1.810E-18 0.0320
637.0 2.220E-18 0.0290
638.0 2.170E-18 0.0270
639.0 1.690E-18 0.0240
640.0 1.320E-18 0.0200
641.0 1.080E-18 0.0170
642.0 9.900E-19 0.0140
643.0 1.040E-18 0.0110
644.0 1.020E-18 0.0080
645.0 9.200E-19 0.0040
646.0 8.000E-19 0.0010
647.0 7.500E-19 0.0000
