O3O1D_JPL06-2
! Ozone Photolysis to O1D (O3O1D)
! O3 + hv -> O2 + O(1D)
!
! Reference:
!  Sander, S.P., R.R. Friedl, D.M. Golden, M.J. Kurylo, G.K. Moortgat,
!     H. Keller-Rudek, P.H. Wine, A.R. Ravishankara, C.E. Kolb, M.J. Molina,
!     B.J. Finlayson-Pitts, R.E. Huie, V.L. Orkin "Chemical Kinetics and
!     Photochemical Data for Use in Atmospheric Studies, Evaluation Number 15,"
!     JPL Publication 06-2, Jet Propulsion Laboratory, California Institute of
!     Technology Pasadena, CA, 2006
!
! Absorption cross sections at 293-298 K from Table 4-4
! Quantum yields compute using recommended equation with parameters from
!     Table 4-6 for 298 K
! format:  wavelength (nm), abs_cs, qy
Beginning
! With FAC, units are (cm^2/molecule)
FAC=1.0E-20
  185.185     62.2         0.9
  186.916     57.6         0.9
  188.679     52.6         0.9
  190.476     47.7         0.9
  192.308     42.9         0.9
  194.175     38.5         0.9
  196.078     34.9         0.9
  198.020     32.4         0.9
  200.000     31.5         0.9
  202.020     32.6         0.9
  204.082     36.3         0.9
  206.186     43.3         0.9
  208.333     53.9         0.9
  210.526     69.3         0.9
  212.766     90.3         0.9
  215.054    118.0         0.9
  217.391    154.0         0.9
  219.780    199.0         0.9
  222.222    255.0         0.9
  224.719    322.0         0.9
  227.273    401.0         0.9
  229.885    490.0         0.9
  232.558    590.0         0.9
  235.294    693.0         0.9
  238.095    802.0         0.9
  240.964    908.0         0.9
  243.902   1001.0         0.9
  246.914   1080.0         0.9
  250.000   1125.0         0.9
  253.165   1148.0         0.9
  256.410   1122.0         0.9
  259.740   1064.0         0.9
  263.158    968.0         0.9
  266.667    840.0         0.9
  270.270    698.0         0.9
  273.973    547.0         0.9
  277.778    406.0         0.9
  281.690    282.0         0.9
  285.714    184.0         0.9
  289.855    113.0         0.9
  294.118     65.1         0.9
  298.507     45.2         0.9
  299.5       39.2         0.9
  300.5       34.3         0.9
  301.5       30.3         0.9
  302.5       26.2         0.9
  303.5       23.4         0.9
  304.5       20.1         0.9
  305.5       17.9         0.884
  306.5       15.5         0.862
  307.5       13.5         0.793
  308.5       12.2         0.671
  309.5       10.2         0.523
  310.5        9.24        0.394
  311.5        7.95        0.310
  312.5        6.91        0.265
  313.5        6.25        0.246
  314.5        5.19        0.239
  315.5        4.77        0.233
  316.5        4.02        0.222
  317.5        3.72        0.206
  318.5        2.89        0.187
  319.5        2.99        0.166
  320.5        2.10        0.146
  321.5        2.05        0.120
  323.5        1.41        0.096
  325.5        1.01        0.084
  327.5        0.697       0.08
  332.5        0.320       0.08
  337.5        0.146       0.08
  342.5        0.0779      0.0
  347.5        0.0306      0.0
  352.5        0.0136      0.0
  357.5        0.00694     0.0
  362.5        0.00305     0.0
  367.5        0.00130     0.0
  372.5        0.000850    0.0
  377.5        0.000572    0.0
  382.5        0.000542    0.0
  387.5        0.000668    0.0
  392.5        0.000956    0.0
  397.5        0.00115     0.0
  402.5        0.00158     0.0
  407.5        0.00258     0.0
  412.5        0.00295     0.0
  417.5        0.00393     0.0
  422.5        0.00656     0.0
  427.5        0.00697     0.0
  432.5        0.00882     0.0
  437.5        0.0137      0.0
  442.5        0.0165      0.0
  447.5        0.0185      0.0
  452.5        0.0218      0.0
  457.5        0.0366      0.0
  462.5        0.0367      0.0
  467.5        0.0410      0.0
  472.5        0.0481      0.0
  477.5        0.0754      0.0
  482.5        0.0813      0.0
  487.5        0.0816      0.0
  492.5        0.0908      0.0
  497.5        0.121       0.0
  502.5        0.160       0.0
  507.5        0.158       0.0
  512.5        0.166       0.0
  517.5        0.183       0.0
  522.5        0.219       0.0
  527.5        0.267       0.0
  532.5        0.287       0.0
  537.5        0.295       0.0
  542.5        0.319       0.0
  547.5        0.337       0.0
  552.5        0.358       0.0
  557.5        0.398       0.0
  562.5        0.439       0.0
  567.5        0.467       0.0
  572.5        0.481       0.0
  577.5        0.464       0.0
  582.5        0.446       0.0
  587.5        0.447       0.0
  592.5        0.476       0.0
  597.5        0.513       0.0
  602.5        0.514       0.0
  607.5        0.478       0.0
  612.5        0.438       0.0
  617.5        0.406       0.0
  622.5        0.382       0.0
  627.5        0.356       0.0
  632.5        0.327       0.0
  637.5        0.297       0.0
  642.5        0.271       0.0
  647.5        0.251       0.0
  652.5        0.231       0.0
  657.5        0.210       0.0
  662.5        0.190       0.0
  667.5        0.170       0.0
  672.5        0.151       0.0
  677.5        0.137       0.0
  682.5        0.126       0.0
  687.5        0.113       0.0
  692.5        0.0989      0.0
  697.5        0.0868      0.0
  702.5        0.0784      0.0
  707.5        0.0731      0.0
  712.5        0.0696      0.0
  717.5        0.0622      0.0
  722.5        0.0543      0.0
  727.5        0.0478      0.0
  732.5        0.0442      0.0
  737.5        0.0432      0.0
  742.5        0.0447      0.0
  747.5        0.0425      0.0
  752.5        0.0338      0.0
  757.5        0.0286      0.0
  762.5        0.0262      0.0
  767.5        0.0260      0.0
  772.5        0.0294      0.0
  777.5        0.0318      0.0
  782.5        0.0262      0.0
  787.5        0.0208      0.0
  792.5        0.0173      0.0
  797.5        0.0157      0.0
  802.5        0.0156      0.0
  807.5        0.0186      0.0
  812.5        0.0221      0.0
  817.5        0.0206      0.0
  822.5        0.0145      0.0
