O3O3P_JPL06-2
! Ozone Photolysis to O3P (O3O3P)
! O3 + hv -> O2 + O(3P)
!
! Reference:
!  Sander, S.P., R.R. Friedl, D.M. Golden, M.J. Kurylo, G.K. Moortgat,
!     H. Keller-Rudek, P.H. Wine, A.R. Ravishankara, C.E. Kolb, M.J. Molina,
!     B.J. Finlayson-Pitts, R.E. Huie, V.L. Orkin "Chemical Kinetics and
!     Photochemical Data for Use in Atmospheric Studies, Evaluation Number 15,"
!     JPL Publication 06-2, Jet Propulsion Laboratory, California Institute of
!     Technology Pasadena, CA, 2006
!
! Absorption cross sections at 293-298 K from Table 4-4
! Quantum yields calculated as [1-qy(O1d)], with qy(O1d) computed using
!     recommended equation with parameters from Table 4-6 for 298 K
! format:  wavelength (nm), abs_cs, qy
Beginning
! With FAC, units are (cm^2/molecule)
FAC=1.0E-20
  185.185     62.2         0.1
  186.916     57.6         0.1
  188.679     52.6         0.1
  190.476     47.7         0.1
  192.308     42.9         0.1
  194.175     38.5         0.1
  196.078     34.9         0.1
  198.020     32.4         0.1
  200.000     31.5         0.1
  202.020     32.6         0.1
  204.082     36.3         0.1
  206.186     43.3         0.1
  208.333     53.9         0.1
  210.526     69.3         0.1
  212.766     90.3         0.1
  215.054    118.0         0.1
  217.391    154.0         0.1
  219.780    199.0         0.1
  222.222    255.0         0.1
  224.719    322.0         0.1
  227.273    401.0         0.1
  229.885    490.0         0.1
  232.558    590.0         0.1
  235.294    693.0         0.1
  238.095    802.0         0.1
  240.964    908.0         0.1
  243.902   1001.0         0.1
  246.914   1080.0         0.1
  250.000   1125.0         0.1
  253.165   1148.0         0.1
  256.410   1122.0         0.1
  259.740   1064.0         0.1
  263.158    968.0         0.1
  266.667    840.0         0.1
  270.270    698.0         0.1
  273.973    547.0         0.1
  277.778    406.0         0.1
  281.690    282.0         0.1
  285.714    184.0         0.1
  289.855    113.0         0.1
  294.118     65.1         0.1
  298.507     45.2         0.1
  299.5       39.2         0.1
  300.5       34.3         0.1
  301.5       30.3         0.1
  302.5       26.2         0.1
  303.5       23.4         0.1
  304.5       20.1         0.1
  305.5       17.9         0.116
  306.5       15.5         0.138
  307.5       13.5         0.207
  308.5       12.2         0.329
  309.5       10.2         0.477
  310.5        9.24        0.606
  311.5        7.95        0.690
  312.5        6.91        0.735
  313.5        6.25        0.754
  314.5        5.19        0.761
  315.5        4.77        0.767
  316.5        4.02        0.778
  317.5        3.72        0.794
  318.5        2.89        0.813
  319.5        2.99        0.834
  320.5        2.10        0.854
  321.5        2.05        0.880
  323.5        1.41        0.904
  325.5        1.01        0.916
  327.5        0.697       0.92
  332.5        0.320       0.92
  337.5        0.146       0.92
  342.5        0.0779      1.0
  347.5        0.0306      1.0
  352.5        0.0136      1.0
  357.5        0.00694     1.0
  362.5        0.00305     1.0
  367.5        0.00130     1.0
  372.5        0.000850    1.0
  377.5        0.000572    1.0
  382.5        0.000542    1.0
  387.5        0.000668    1.0
  392.5        0.000956    1.0
  397.5        0.00115     1.0
  402.5        0.00158     1.0
  407.5        0.00258     1.0
  412.5        0.00295     1.0
  417.5        0.00393     1.0
  422.5        0.00656     1.0
  427.5        0.00697     1.0
  432.5        0.00882     1.0
  437.5        0.0137      1.0
  442.5        0.0165      1.0
  447.5        0.0185      1.0
  452.5        0.0218      1.0
  457.5        0.0366      1.0
  462.5        0.0367      1.0
  467.5        0.0410      1.0
  472.5        0.0481      1.0
  477.5        0.0754      1.0
  482.5        0.0813      1.0
  487.5        0.0816      1.0
  492.5        0.0908      1.0
  497.5        0.121       1.0
  502.5        0.160       1.0
  507.5        0.158       1.0
  512.5        0.166       1.0
  517.5        0.183       1.0
  522.5        0.219       1.0
  527.5        0.267       1.0
  532.5        0.287       1.0
  537.5        0.295       1.0
  542.5        0.319       1.0
  547.5        0.337       1.0
  552.5        0.358       1.0
  557.5        0.398       1.0
  562.5        0.439       1.0
  567.5        0.467       1.0
  572.5        0.481       1.0
  577.5        0.464       1.0
  582.5        0.446       1.0
  587.5        0.447       1.0
  592.5        0.476       1.0
  597.5        0.513       1.0
  602.5        0.514       1.0
  607.5        0.478       1.0
  612.5        0.438       1.0
  617.5        0.406       1.0
  622.5        0.382       1.0
  627.5        0.356       1.0
  632.5        0.327       1.0
  637.5        0.297       1.0
  642.5        0.271       1.0
  647.5        0.251       1.0
  652.5        0.231       1.0
  657.5        0.210       1.0
  662.5        0.190       1.0
  667.5        0.170       1.0
  672.5        0.151       1.0
  677.5        0.137       1.0
  682.5        0.126       1.0
  687.5        0.113       1.0
  692.5        0.0989      1.0
  697.5        0.0868      1.0
  702.5        0.0784      1.0
  707.5        0.0731      1.0
  712.5        0.0696      1.0
  717.5        0.0622      1.0
  722.5        0.0543      1.0
  727.5        0.0478      1.0
  732.5        0.0442      1.0
  737.5        0.0432      1.0
  742.5        0.0447      1.0
  747.5        0.0425      1.0
  752.5        0.0338      1.0
  757.5        0.0286      1.0
  762.5        0.0262      1.0
  767.5        0.0260      1.0
  772.5        0.0294      1.0
  777.5        0.0318      1.0
  782.5        0.0262      1.0
  787.5        0.0208      1.0
  792.5        0.0173      1.0
  797.5        0.0157      1.0
  802.5        0.0156      1.0
  807.5        0.0186      1.0
  812.5        0.0221      1.0
  817.5        0.0206      1.0
  822.5        0.0145      1.0