PAA             
! Peroxy acetic acid absorption cross sections                                   
! Orlando, J. J. and G. S. Tyndall (2003): "Gas phase UV absorption spectra      
! for peracetic acid, and for acetic acid monomers and dimers," J. Photochem.    
! Photobiol A, 157, 161-166.
! assumes a quantum of 1.0                                                     
Points (the mechanism evaluated with this format)                                
! With FAC, units are (cm^2/molecule)                                            
FAC=1.0                                                                          
210.0 3.810E-19 1.0000
212.0 3.310E-19 1.0000
214.0 2.950E-19 1.0000
216.0 2.540E-19 1.0000
218.0 2.170E-19 1.0000
220.0 1.890E-19 1.0000
222.0 1.600E-19 1.0000
224.0 1.390E-19 1.0000
226.0 1.200E-19 1.0000
228.0 1.050E-19 1.0000
230.0 9.100E-20 1.0000
232.0 8.010E-20 1.0000
234.0 7.030E-20 1.0000
236.0 6.310E-20 1.0000
238.0 5.610E-20 1.0000
240.0 5.030E-20 1.0000
242.0 4.830E-20 1.0000
244.0 4.310E-20 1.0000
246.0 3.820E-20 1.0000
248.0 3.410E-20 1.0000
250.0 3.050E-20 1.0000
252.0 2.710E-20 1.0000
254.0 2.420E-20 1.0000
256.0 2.160E-20 1.0000
258.0 1.930E-20 1.0000
260.0 1.710E-20 1.0000
262.0 1.530E-20 1.0000
264.0 1.350E-20 1.0000
266.0 1.210E-20 1.0000
268.0 1.060E-20 1.0000
270.0 9.450E-21 1.0000
272.0 8.350E-21 1.0000
274.0 7.420E-21 1.0000
276.0 6.510E-21 1.0000
278.0 5.740E-21 1.0000
280.0 5.060E-21 1.0000
282.0 4.440E-21 1.0000
284.0 3.860E-21 1.0000
286.0 3.340E-21 1.0000
288.0 2.970E-21 1.0000
290.0 2.560E-21 1.0000
292.0 2.260E-21 1.0000
294.0 1.930E-21 1.0000
296.0 1.700E-21 1.0000
298.0 1.410E-21 1.0000
300.0 1.230E-21 1.0000
302.0 1.070E-21 1.0000
304.0 9.400E-22 1.0000
306.0 7.800E-22 1.0000
308.0 6.900E-22 1.0000
310.0 6.200E-22 1.0000
312.0 4.500E-22 1.0000
314.0 4.400E-22 1.0000
316.0 4.000E-22 1.0000
318.0 3.500E-22 1.0000
320.0 2.500E-22 1.0000
322.0 2.000E-22 1.0000
324.0 2.000E-22 1.0000
326.0 1.700E-22 1.0000
328.0 1.400E-22 1.0000
330.0 9.000E-23 1.0000
332.0 1.100E-22 1.0000
334.0 1.100E-22 1.0000
336.0 9.000E-23 1.0000
338.0 9.000E-23 1.0000
340.0 6.000E-23 1.0000
342.0 3.000E-23 1.0000
344.0 0.000E+00 1.0000
